Wavelength(nm)	T%
1100		0.003612239
1099.5		0.003794188
1099		0.003755293
1098.5		0.003687849
1098		0.003873178
1097.5		0.003638265
1097		0.003868256
1096.5		0.003822028
1096		0.003671567
1095.5		0.003553325
1095		0.004079317
1094.5		0.003571131
1094		0.003621423
1093.5		0.003895453
1093		0.003656136
1092.5		0.003169612
1092		0.004012902
1091.5		0.003623679
1091		0.004508237
1090.5		0.003752143
1090		0.004445637
1089.5		0.004141382
1089		0.004088467
1088.5		0.004029796
1088		0.003643906
1087.5		0.003808043
1087		0.003418582
1086.5		0.004564147
1086		0.004290614
1085.5		0.004117709
1085		0.004600767
1084.5		0.00418601
1084		0.004622216
1083.5		0.005362612
1083		0.004919254
1082.5		0.004848971
1082		0.005179222
1081.5		0.005430929
1081		0.004802251
1080.5		0.004768048
1080		0.004969453
1079.5		0.005135456
1079		0.004996412
1078.5		0.004309555
1078		0.003989507
1077.5		0.004600375
1077		0.003956454
1076.5		0.004059794
1076		0.004159383
1075.5		0.00411085
1075		0.004349955
1074.5		0.003834158
1074		0.00344882
1073.5		0.003442831
1073		0.003813794
1072.5		0.003953726
1072		0.003379977
1071.5		0.003530273
1071		0.003756138
1070.5		0.003430692
1070		0.003749351
1069.5		0.003635597
1069		0.003544313
1068.5		0.003519082
1068		0.003300746
1067.5		0.003502246
1067		0.00373657
1066.5		0.003315097
1066		0.003943843
1065.5		0.003583052
1065		0.003574121
1064.5		0.003057576
1064		0.003451065
1063.5		0.003986615
1063		0.00316808
1062.5		0.003463665
1062		0.003084397
1061.5		0.003857597
1061		0.003865162
1060.5		0.00311455
1060		0.00362403
1059.5		0.003717252
1059		0.002850934
1058.5		0.004076857
1058		0.003723415
1057.5		0.003888254
1057		0.003655212
1056.5		0.003785286
1056		0.003019153
1055.5		0.003253701
1055		0.003650476
1054.5		0.003138855
1054		0.003169382
1053.5		0.003553319
1053		0.003601315
1052.5		0.003709948
1052		0.003839533
1051.5		0.003636403
1051		0.003680973
1050.5		0.003368418
1050		0.004139225
1049.5		0.003477769
1049		0.003274628
1048.5		0.003374558
1048		0.003881868
1047.5		0.0031205
1047		0.003526899
1046.5		0.003277464
1046		0.003357885
1045.5		0.003842544
1045		0.003522811
1044.5		0.003125742
1044		0.004342323
1043.5		0.003933573
1043		0.003786103
1042.5		0.003859631
1042		0.003557018
1041.5		0.004020439
1041		0.003965078
1040.5		0.003859564
1040		0.004289511
1039.5		0.004217979
1039		0.004224686
1038.5		0.003908013
1038		0.004637268
1037.5		0.004716149
1037		0.005140069
1036.5		0.005335205
1036		0.004781377
1035.5		0.004803564
1035		0.004545643
1034.5		0.004447889
1034		0.004824589
1033.5		0.004526041
1033		0.004208136
1032.5		0.00426387
1032		0.003390666
1031.5		0.004300978
1031		0.004038577
1030.5		0.003840683
1030		0.00390477
1029.5		0.003611166
1029		0.00376376
1028.5		0.003613583
1028		0.003530075
1027.5		0.003037538
1027		0.004065362
1026.5		0.003424809
1026		0.003723231
1025.5		0.003312625
1025		0.003295836
1024.5		0.003360302
1024		0.003629191
1023.5		0.003542835
1023		0.003063004
1022.5		0.003491909
1022		0.003436249
1021.5		0.003392833
1021		0.003641434
1020.5		0.003703153
1020		0.003474649
1019.5		0.002932897
1019		0.003717966
1018.5		0.003762505
1018		0.004057897
1017.5		0.003496368
1017		0.003324705
1016.5		0.00374028
1016		0.003251762
1015.5		0.003021572
1015		0.003101648
1014.5		0.003351771
1014		0.003061919
1013.5		0.003548017
1013		0.003436775
1012.5		0.00332149
1012		0.003914163
1011.5		0.003402203
1011		0.0038663
1010.5		0.003087974
1010		0.003371478
1009.5		0.003383695
1009		0.003132512
1008.5		0.003581406
1008		0.003605087
1007.5		0.003932054
1007		0.003440132
1006.5		0.003361693
1006		0.003575857
1005.5		0.003490553
1005		0.004154407
1004.5		0.003668183
1004		0.002938452
1003.5		0.004035317
1003		0.003063188
1002.5		0.004075748
1002		0.00397336
1001.5		0.003817807
1001		0.004690216
1000.5		0.004618949
1000		0.005493313
999.5		0.006054549
999		0.006854665
998.5		0.006529911
998		0.005037735
997.5		0.004902185
997		0.0045045
996.5		0.004072214
996		0.00448875
995.5		0.003735785
995		0.00383059
994.5		0.003748333
994		0.004149186
993.5		0.003797892
993		0.0042137
992.5		0.003426593
992		0.003548487
991.5		0.00371884
991		0.003519643
990.5		0.003249775
990		0.00408966
989.5		0.003068077
989		0.003288392
988.5		0.003208413
988		0.004208067
987.5		0.003377968
987		0.003455603
986.5		0.003890783
986		0.003989207
985.5		0.003567115
985		0.00359573
984.5		0.003296423
984		0.003763242
983.5		0.003528019
983		0.00363947
982.5		0.003740691
982		0.003766108
981.5		0.004020142
981		0.003710397
980.5		0.0028917
980		0.003311962
979.5		0.003660671
979		0.002934599
978.5		0.003648868
978		0.003258202
977.5		0.003297824
977		0.003931004
976.5		0.003273963
976		0.003217965
975.5		0.003490986
975		0.00358325
974.5		0.003298654
974		0.003803837
973.5		0.003647928
973		0.003698512
972.5		0.004269922
972		0.005301364
971.5		0.012151531
971		0.010448548
970.5		0.005836876
970		0.004475919
969.5		0.004460703
969		0.003841954
968.5		0.003803196
968		0.003948492
967.5		0.003407913
967		0.003430604
966.5		0.003595824
966		0.003541212
965.5		0.00380112
965		0.003682898
964.5		0.00337407
964		0.003360049
963.5		0.003788961
963		0.003037564
962.5		0.003767782
962		0.003814116
961.5		0.003512325
961		0.004140475
960.5		0.003594286
960		0.003471158
959.5		0.003586858
959		0.003625791
958.5		0.003270752
958		0.003625041
957.5		0.003401156
957		0.003153006
956.5		0.003525344
956		0.003754754
955.5		0.003542992
955		0.003380056
954.5		0.003303024
954		0.003793861
953.5		0.00342446
953		0.003439284
952.5		0.003180108
952		0.003505015
951.5		0.003746867
951		0.003679262
950.5		0.003561561
950		0.004163127
949.5		0.003265337
949		0.003919546
948.5		0.003200318
948		0.003287498
947.5		0.002755247
947		0.003683751
946.5		0.003317469
946		0.003537776
945.5		0.003818002
945		0.003507213
944.5		0.003670155
944		0.003202788
943.5		0.003147934
943		0.003289547
942.5		0.003150921
942		0.003418572
941.5		0.003742366
941		0.003594738
940.5		0.003784989
940		0.004152225
939.5		0.003926955
939		0.00374752
938.5		0.003434763
938		0.004292317
937.5		0.003417596
937		0.003795963
936.5		0.003321582
936		0.003500082
935.5		0.00314263
935		0.004156557
934.5		0.003934974
934		0.00374852
933.5		0.00354887
933		0.004057198
932.5		0.003738066
932		0.003754728
931.5		0.003669928
931		0.003478906
930.5		0.003297124
930		0.003541107
929.5		0.003209376
929		0.003820736
928.5		0.003241722
928		0.003886612
927.5		0.003602674
927		0.00352118
926.5		0.003134761
926		0.003302628
925.5		0.003563628
925		0.003778937
924.5		0.003027468
924		0.00368777
923.5		0.003259793
923		0.003916411
922.5		0.003950228
922		0.003656771
921.5		0.003610692
921		0.003767596
920.5		0.003363158
920		0.004081367
919.5		0.003499403
919		0.003418167
918.5		0.003718525
918		0.00404674
917.5		0.003534904
917		0.003616214
916.5		0.003517244
916		0.004059302
915.5		0.00288993
915		0.004072625
914.5		0.003741576
914		0.003550377
913.5		0.00361672
913		0.00323098
912.5		0.004195485
912		0.003506735
911.5		0.003469447
911		0.00381006
910.5		0.003859131
910		0.003684716
909.5		0.003342554
909		0.00335211
908.5		0.003569478
908		0.003775829
907.5		0.003536273
907		0.003192402
906.5		0.003199018
906		0.003950702
905.5		0.003364075
905		0.003988916
904.5		0.003599196
904		0.003046191
903.5		0.003207551
903		0.003326826
902.5		0.003341671
902		0.003749337
901.5		0.003359644
901		0.003622742
900.5		0.003611399
900		0.003158778
899.5		-0.000582176
899		0.000863018
898.5		0.00066827
898		0.000238013
897.5		0.000939515
897		0.000233201
896.5		0.000598208
896		0.000336592
895.5		0.000509761
895		1.57E-05
894.5		0.000427176
894		0.000601561
893.5		0.000350525
893		9.67E-05
892.5		0.000451409
892		0.000426129
891.5		0.00012642
891		0.00012946
890.5		0.000257419
890		0.000463885
889.5		0.000642737
889		0.000624887
888.5		-0.000143276
888		0.000493463
887.5		0.000129201
887		0.000428337
886.5		0.000167702
886		0.000332953
885.5		0.00043506
885		0.000179184
884.5		0.000606672
884		7.78E-05
883.5		0.000297795
883		0.000415307
882.5		0.000156433
882		0.000377387
881.5		-5.62E-05
881		0.000276915
880.5		9.68E-06
880		3.87E-05
879.5		0.00033002
879		0.000112991
878.5		0.000248767
878		9.80E-05
877.5		0.000326783
877		0.0001107
876.5		9.85E-05
876		0.000275015
875.5		4.88E-05
875		0.000106397
874.5		-2.50E-05
874		0.000164595
873.5		5.91E-05
873		0.000155273
872.5		0.00017014
872		8.41E-06
871.5		0.000250676
871		5.53E-06
870.5		0.000254818
870		9.89E-05
869.5		0.000237679
869		0.000149628
868.5		4.47E-05
868		0.000377896
867.5		9.62E-06
867		0.000148418
866.5		-2.50E-05
866		0.000231748
865.5		0.000103274
865		0.000103913
864.5		0.000247967
864		3.96E-05
863.5		0.000128699
863		0.00010461
862.5		5.70E-05
862		0.000115176
861.5		0.000160823
861		0.000226461
860.5		4.18E-05
860		-8.01E-06
859.5		9.34E-05
859		3.24E-05
858.5		0.000152894
858		1.39E-05
857.5		3.65E-05
857		4.62E-05
856.5		9.93E-05
856		0.000166078
855.5		5.99E-05
855		0.000137689
854.5		8.01E-05
854		5.05E-05
853.5		6.22E-05
853		0.000182958
852.5		6.04E-05
852		0.000316663
851.5		2.40E-05
851		6.67E-05
850.5		0.000227871
850		-4.62E-05
849.5		-2.12E-05
849		0.000186699
848.5		-3.46E-05
848		0.000101477
847.5		0.000199428
847		1.47E-05
846.5		0.000151629
846		9.98E-05
845.5		-9.40E-06
845		0.000158388
844.5		0.000108667
844		-4.36E-05
843.5		0.000254393
843		2.79E-05
842.5		3.92E-05
842		7.08E-05
841.5		0.000168092
841		6.52E-05
840.5		5.69E-05
840		0.000198514
839.5		8.13E-05
839		-7.12E-05
838.5		0.000199598
838		0.000126989
837.5		0.000107927
837		-0.000108472
836.5		2.29E-05
836		-2.40E-06
835.5		1.39E-05
835		2.60E-05
834.5		0.000202612
834		3.97E-05
833.5		-4.13E-05
833		-1.12E-05
832.5		0.000147387
832		4.61E-05
831.5		0.000111796
831		1.92E-05
830.5		9.26E-05
830		0.000112569
829.5		0.000130916
829		2.41E-05
828.5		4.52E-06
828		0.000153687
827.5		0.00016784
827		0.000142148
826.5		-5.69E-05
826		3.81E-05
825.5		0.000141168
825		0.000356634
824.5		3.54E-05
824		0.00014998
823.5		2.49E-05
823		8.50E-05
822.5		9.52E-05
822		8.17E-05
821.5		6.13E-05
821		0.000184527
820.5		8.08E-05
820		0.000142391
819.5		-1.27E-05
819		0.000110015
818.5		0.000120961
818		8.56E-05
817.5		0.000112244
817		8.03E-05
816.5		0.000108782
816		0.000144629
815.5		-2.34E-05
815		3.49E-05
814.5		6.55E-06
814		6.78E-05
813.5		5.42E-05
813		5.96E-05
812.5		-3.18E-05
812		-7.72E-06
811.5		0.000158204
811		8.93E-05
810.5		-3.60E-05
810		6.92E-05
809.5		-2.21E-05
809		8.36E-05
808.5		0.000112112
808		1.58E-05
807.5		0.000151035
807		0.000156733
806.5		9.64E-05
806		0.000108743
805.5		9.95E-05
805		0.000154276
804.5		3.81E-05
804		0.000120689
803.5		0.000153495
803		0.000128915
802.5		6.43E-05
802		0.000235147
801.5		4.31E-05
801		2.64E-05
800.5		4.27E-05
800		-3.91E-05
799.5		7.15E-05
799		0.000145656
798.5		8.73E-05
798		0.000150756
797.5		0.000153729
797		0.000203027
796.5		0.000149457
796		0.000102377
795.5		0.00012162
795		0.000155394
794.5		0.000123797
794		0.000108561
793.5		7.88E-05
793		0.000191699
792.5		0.000179168
792		0.000176733
791.5		0.000201642
791		0.000171128
790.5		3.95E-05
790		0.000122848
789.5		0.000132899
789		0.000113475
788.5		0.000165503
788		0.00010759
787.5		0.000179602
787		9.76E-05
786.5		0.000165531
786		0.000178131
785.5		0.000228604
785		9.21E-05
784.5		0.000117401
784		0.000150649
783.5		3.60E-05
783		0.000242821
782.5		4.44E-05
782		0.000156083
781.5		0.000101924
781		0.000191727
780.5		0.000186714
780		4.70E-05
779.5		0.000190111
779		0.00037105
778.5		0.000191757
778		0.000136929
777.5		0.000162732
777		0.000150638
776.5		0.000149086
776		0.000212578
775.5		0.000173829
775		0.000143649
774.5		0.000190825
774		0.000136298
773.5		0.00017033
773		7.25E-05
772.5		0.000161478
772		0.000102348
771.5		0.000192276
771		0.0002924
770.5		0.000181601
770		0.00016037
769.5		0.000187659
769		0.000129632
768.5		0.000145336
768		6.41E-05
767.5		0.000192041
767		0.00027711
766.5		0.000182337
766		0.000159111
765.5		0.000136759
765		0.000201881
764.5		0.000106796
764		0.000195972
763.5		0.000133692
763		0.000362495
762.5		0.000177549
762		0.000178607
761.5		0.000267096
761		0.000193876
760.5		0.000141234
760		9.25E-05
759.5		0.000152064
759		0.000336972
758.5		0.00021805
758		0.000200297
757.5		0.000146762
757		0.000247297
756.5		0.000228538
756		0.000392694
755.5		0.000305837
755		0.000300764
754.5		0.000310069
754		0.000268765
753.5		0.000268209
753		0.000374819
752.5		0.000351074
752		0.000381869
751.5		0.000415382
751		0.000322054
750.5		0.000402164
750		0.000448734
749.5		0.000409418
749		0.000381768
748.5		0.000447455
748		0.000430076
747.5		0.000422951
747		0.000520199
746.5		0.000418676
746		0.000450931
745.5		0.000777018
745		0.000552473
744.5		0.000747664
744		0.000594972
743.5		0.000729602
743		0.000846224
742.5		0.000892609
742		0.000987069
741.5		0.001059406
741		0.001031809
740.5		0.000921201
740		0.00122509
739.5		0.001697096
739		0.001523449
738.5		0.001616014
738		0.001847201
737.5		0.002011177
737		0.002198945
736.5		0.002444683
736		0.002903371
735.5		0.003171871
735		0.003531629
734.5		0.004150151
734		0.004609833
733.5		0.0052303
733		0.005941441
732.5		0.006782053
732		0.007870479
731.5		0.008734226
731		0.010202043
730.5		0.011825746
730		0.013697178
729.5		0.015666772
729		0.018277261
728.5		0.021135792
728		0.0245526
727.5		0.02847006
727		0.033143252
726.5		0.038558144
726		0.044700976
725.5		0.052403308
725		0.061122742
724.5		0.071455136
724		0.083760105
723.5		0.098433413
723		0.115313441
722.5		0.136027694
722		0.160742492
721.5		0.190436468
721		0.226626709
720.5		0.27142781
720		0.326334834
719.5		0.392434061
719		0.475613862
718.5		0.580419898
718		0.710051835
717.5		0.877801418
717		1.091955304
716.5		1.367015719
716		1.720882177
715.5		2.182712078
715		2.793801308
714.5		3.594240904
714		4.676337719
713.5		6.101094723
713		7.96275425
712.5		10.47373295
712		13.77798939
711.5		17.94879532
711		23.33071136
710.5		29.84765244
710		37.46649551
709.5		45.83283234
709		54.55763245
708.5		63.23321915
708		71.08761597
707.5		77.94563293
707		83.45626831
706.5		87.49481201
706		90.44702911
705.5		92.40707397
705		93.63234711
704.5		94.46060944
704		94.95032501
703.5		95.25692749
703		95.44068146
702.5		95.58849335
702		95.68244171
701.5		95.76863861
701		95.8446579
700.5		95.90649414
700		95.96505737
699.5		96.01275635
699		96.05502319
698.5		96.09461212
698		96.12731171
697.5		96.16586304
697		96.18547821
696.5		96.20918274
696		96.23339844
695.5		96.24629974
695		96.25366211
694.5		96.27218628
694		96.27361298
693.5		96.28225708
693		96.28824615
692.5		96.29042053
692		96.30274963
691.5		96.31522369
691		96.32003021
690.5		96.32752228
690		96.33805084
689.5		96.34293365
689		96.34349823
688.5		96.34046173
688		96.32382202
687.5		96.29912567
687		96.27599335
686.5		96.23545074
686		96.19004822
685.5		96.13259888
685		96.06158447
684.5		95.9941864
684		95.93578339
683.5		95.87247467
683		95.81845093
682.5		95.76618958
682		95.7390213
681.5		95.70908356
681		95.70570374
680.5		95.72079468
680		95.74473572
679.5		95.78765869
679		95.83429718
678.5		95.8985672
678		95.96637726
677.5		96.04176331
677		96.11688995
676.5		96.18847656
676		96.2529068
675.5		96.30695343
675		96.35342407
674.5		96.38523102
674		96.40712738
673.5		96.41957855
673		96.41430664
672.5		96.4048233
672		96.38741302
671.5		96.35254669
671		96.32793427
670.5		96.31010437
670		96.27610016
669.5		96.26927948
669		96.24918365
668.5		96.24582672
668		96.24798584
667.5		96.25614166
667		96.263237
666.5		96.287323
666		96.3134079
665.5		96.32807159
665		96.3555069
664.5		96.36773682
664		96.37799835
663.5		96.37638855
663		96.3602066
662.5		96.34087372
662		96.29982758
661.5		96.24106598
661		96.17310333
660.5		96.10437775
660		96.02037811
659.5		95.93448639
659		95.83972931
658.5		95.74956512
658		95.65791321
657.5		95.57176208
657		95.50375366
656.5		95.45251465
656		95.40649414
655.5		95.37225342
655		95.3609314
654.5		95.34668732
654		95.36178589
653.5		95.3870697
653		95.40421295
652.5		95.43180084
652		95.47185516
651.5		95.50051117
651		95.52977753
650.5		95.55192566
650		95.56210327
649.5		95.56182861
649		95.56893921
648.5		95.54930878
648		95.53395081
647.5		95.51223755
647		95.48950958
646.5		95.46420288
646		95.4437027
645.5		95.41916656
645		95.3992691
644.5		95.37424469
644		95.36828613
643.5		95.35454559
643		95.34553528
642.5		95.33248138
642		95.32025146
641.5		95.30071259
641		95.26685333
640.5		95.23526764
640		95.19372559
639.5		95.13343048
639		95.07125092
638.5		94.99975586
638		94.93125153
637.5		94.8536911
637		94.78606415
636.5		94.72692871
636		94.65617371
635.5		94.64698792
635		94.64928436
634.5		94.65514374
634		94.68616486
633.5		94.74756622
633		94.83119965
632.5		94.91723633
632		95.0269928
631.5		95.13282013
631		95.23959351
630.5		95.34989929
630		95.45114899
629.5		95.53005981
629		95.59362793
628.5		95.63425446
628		95.65461731
627.5		95.65667725
627		95.64471436
626.5		95.6188736
626		95.57875061
625.5		95.52907562
625		95.4887085
624.5		95.45875549
624		95.43313599
623.5		95.41164398
623		95.40866852
622.5		95.42140198
622		95.44790649
621.5		95.47567749
621		95.49728394
620.5		95.52102661
620		95.53408051
619.5		95.52815247
619		95.50274658
618.5		95.45001984
618		95.3649292
617.5		95.22886658
617		95.11882782
616.5		94.97003174
616		94.79417419
615.5		94.61611176
615		94.4389267
614.5		94.2661972
614		94.11267853
613.5		93.99106598
613		93.89743042
612.5		93.83961487
612		93.82167053
611.5		93.84092712
611		93.90100861
610.5		93.99720764
610		94.12982941
609.5		94.27243805
609		94.4317627
608.5		94.60752106
608		94.77640533
607.5		94.94313049
607		95.10321808
606.5		95.23479462
606		95.35169983
605.5		95.450737
605		95.52519989
604.5		95.57710266
604		95.60513306
603.5		95.62264252
603		95.62457275
602.5		95.61672211
602		95.60968781
601.5		95.58712006
601		95.55419922
600.5		95.52082062
600		95.4757309
599.5		95.4226532
599		95.32518005
598.5		95.26148987
598		95.1683197
597.5		95.05456543
597		94.91962433
596.5		94.77485657
596		94.60823059
595.5		94.43968201
595		94.26659393
594.5		94.10092163
594		93.94171143
593.5		93.79862213
593		93.67684937
592.5		93.58207703
592		93.52799988
591.5		93.50762939
591		93.52011871
590.5		93.58000183
590		93.66210175
589.5		93.76238251
589		93.89997101
588.5		94.04295349
588		94.18398285
587.5		94.32072449
587		94.43717194
586.5		94.53156281
586		94.58760834
585.5		94.59210968
585		94.56526184
584.5		94.49002838
584		94.3759613
583.5		94.22795868
583		94.04209137
582.5		93.84427643
582		93.64225769
581.5		93.43835449
581		93.2492981
580.5		93.09445953
580		92.98284149
579.5		92.90557861
579		92.89979553
578.5		92.93511963
578		93.02650452
577.5		93.17002869
577		93.35407257
576.5		93.54638672
576		93.75468445
575.5		93.94129181
575		94.09358978
574.5		94.20347595
574		94.22762299
573.5		94.18383026
573		94.05728912
572.5		93.80897522
572		93.43610382
571.5		92.84828949
571		91.91757202
570.5		90.42692566
570		88.08930969
569.5		84.50622559
569		79.14820862
568.5		72.21168518
568		63.5341835
567.5		53.73229218
567		43.73847198
566.5		34.25668335
566		25.91038322
565.5		18.97320366
565		13.66485786
564.5		9.685136795
564		6.842963219
563.5		4.871003151
563		3.463256836
562.5		2.477617264
562		1.801719904
561.5		1.313724637
561		0.968172967
560.5		0.722884655
560		0.544553399
559.5		0.413223833
559		0.316492021
558.5		0.244759813
558		0.189800218
557.5		0.14900732
557		0.118364699
556.5		0.093816295
556		0.075164653
555.5		0.060802653
555		0.049322613
554.5		0.040086344
554		0.033008859
553.5		0.027179774
553		0.022639712
552.5		0.018895296
552		0.015983405
551.5		0.013421006
551		0.0114257
550.5		0.009656169
550		0.008242074
549.5		0.007056747
549		0.006107967
548.5		0.005320153
548		0.004645466
547.5		0.003952841
547		0.00347983
546.5		0.003027521
546		0.002711718
545.5		0.002327377
545		0.002119768
544.5		0.001849902
544		0.001644614
543.5		0.001418887
543		0.00124396
542.5		0.001203977
542		0.001102932
541.5		0.000881994
541		0.000776132
540.5		0.000643458
540		0.00057509
539.5		0.000466798
539		0.000474395
538.5		0.000526365
538		0.000397169
537.5		0.000334767
537		0.000347611
536.5		0.000180693
536		0.000337222
535.5		0.000229214
535		0.000154814
534.5		0.000271427
534		0.000105967
533.5		0.000180062
533		0.000128071
532.5		0.000152964
532		7.90E-05
531.5		2.37E-05
531		0.000303016
530.5		7.10E-05
530		9.20E-05
529.5		8.78E-05
529		0.000101012
528.5		0.000131318
528		8.75E-05
527.5		0.000116251
527		5.19E-05
526.5		2.93E-05
526		0.000164745
525.5		0.000161199
525		0.000180413
524.5		0.000138215
524		0.000133534
523.5		8.70E-05
523		8.12E-05
522.5		8.83E-05
522		0.000258425
521.5		9.15E-05
521		0.000107962
520.5		0.000109394
520		8.80E-05
519.5		0.000233881
519		8.24E-05
518.5		0.00017253
518		8.34E-05
517.5		0.000235143
517		8.89E-05
516.5		3.21E-05
516		4.35E-05
515.5		5.24E-05
515		0.000163162
514.5		1.40E-05
514		0.000127894
513.5		0.000158248
513		0.000118474
512.5		0.000102791
512		0.000107874
511.5		4.17E-05
511		9.48E-05
510.5		0.000135685
510		0.000136872
509.5		0.000150165
509		0.000153646
508.5		8.31E-05
508		1.44E-05
507.5		1.02E-05
507		0.000100202
506.5		-0.000249404
506		-0.000142478
505.5		-0.000133572
505		0.00066271
504.5		0.000260512
504		-9.24E-05
503.5		-7.09E-05
503		9.24E-05
502.5		0.000192784
502		0.00015436
501.5		-2.76E-05
501		7.05E-05
500.5		8.05E-05
500		6.93E-05
499.5		0.000113491
499		0.000155524
498.5		0.00017627
498		0.00025159
497.5		0.000180322
497		0.000176648
496.5		0.000177572
496		0.00014067
495.5		0.000140133
495		0.000149833
494.5		0.000145159
494		0.000133617
493.5		0.000202985
493		0.000152519
492.5		0.000116311
492		0.000136311
491.5		0.000138687
491		7.57E-05
490.5		0.000110682
490		7.95E-05
489.5		0.000140572
489		0.000117565
488.5		0.000167109
488		0.000127675
487.5		0.000118081
487		0.000152903
486.5		0.000140139
486		0.000133705
485.5		8.33E-05
485		0.000146617
484.5		8.81E-05
484		0.00018441
483.5		0.000171518
483		0.000138104
482.5		0.000178761
482		0.000179595
481.5		0.000130684
481		6.99E-05
480.5		0.000108631
480		0.000145398
479.5		0.000164177
479		0.000136984
478.5		7.08E-05
478		0.000111367
477.5		0.000165973
477		8.05E-05
476.5		7.75E-05
476		3.74E-05
475.5		0.000104905
475		0.00013071
474.5		0.000144001
474		4.70E-05
473.5		0.000170458
473		0.000185991
472.5		8.93E-05
472		9.06E-05
471.5		9.03E-05
471		6.57E-05
470.5		0.000155801
470		0.000189193
469.5		0.000131173
469		9.98E-05
468.5		0.000179025
468		0.000146271
467.5		0.000155791
467		8.73E-05
466.5		0.00017591
466		0.000112458
465.5		0.00019466
465		0.000187055
464.5		0.000209469
464		0.000188678
463.5		9.03E-05
463		0.000102699
462.5		0.000149263
462		7.91E-05
461.5		0.000180848
461		0.000113406
460.5		0.000175493
460		7.28E-05
459.5		0.000206618
459		8.14E-05
458.5		9.75E-05
458		0.000129644
457.5		0.0001336
457		0.000173734
456.5		7.39E-05
456		0.000174631
455.5		0.000145235
455		8.09E-05
454.5		0.000183495
454		0.000120754
453.5		0.000103165
453		0.000117515
452.5		0.000146005
452		0.000108161
451.5		0.000223713
451		0.000101564
450.5		0.000110162
450		0.000145767
449.5		5.40E-05
449		0.000159507
448.5		6.88E-05
448		0.000184991
447.5		0.000129872
447		0.000107616
446.5		0.000150086
446		0.000182801
445.5		0.000112647
445		0.00016545
444.5		8.53E-05
444		7.00E-05
443.5		8.48E-05
443		-5.20E-05
442.5		-9.87E-06
442		0.000159937
441.5		0.000310569
441		-3.18E-05
440.5		-0.00027017
440		-5.81E-05
439.5		0.000144591
439		0.000263746
438.5		0.000116445
438		0.000226981
437.5		6.88E-05
437		0.000255531
436.5		0.000146202
436		7.73E-06
435.5		9.88E-05
435		7.26E-05
434.5		0.000161539
434		0.000120414
433.5		8.56E-05
433		0.00017371
432.5		7.63E-05
432		0.000203794
431.5		0.000119144
431		0.000121937
430.5		0.000245681
430		6.01E-05
429.5		-0.00017979
429		0.000273631
428.5		-6.98E-05
428		-0.000133094
427.5		0.000126906
427		6.26E-05
426.5		0.000278233
426		0.000211794
425.5		7.57E-05
425		0.000190176
424.5		0.000138053
424		0.000171378
423.5		7.44E-05
423		8.60E-05
422.5		0.000131786
422		0.000267436
421.5		0.000173156
421		7.26E-05
420.5		0.000233063
420		0.000177076
419.5		0.000233467
419		7.99E-05
418.5		0.000191533
418		0.000155279
417.5		0.000178533
417		0.000221946
416.5		6.71E-05
416		0.000313575
415.5		0.00040877
415		0.000491326
414.5		0.000582003
414		0.000498856
413.5		0.000285052
413		0.000478654
412.5		0.000264004
412		0.000174457
411.5		0.000274715
411		0.000138669
410.5		0.000326769
410		0.000212
409.5		0.000304577
409		0.000282812
408.5		0.000295365
408		0.000292289
407.5		0.000105264
407		0.0002188
406.5		0.000235748
406		0.000402165
405.5		0.000185627
405		0.000228606
404.5		0.000251845
404		0.00032034
403.5		0.000294889
403		0.000245213
402.5		0.000192915
402		0.000246282
401.5		0.000274597
401		0.00017129
400.5		0.000233622
400		0.000104563
399.5		0.000119621
399		0.000155535
398.5		0.000214416
398		0.000181268
397.5		0.000279978
397		0.000332943
396.5		0.00025476
396		0.000280566
395.5		0.000298069
395		0.000257433
394.5		0.000163268
394		0.000254979
393.5		0.000152143
393		0.000261222
392.5		0.00021058
392		0.000213132
391.5		0.000139899
391		0.000140813
390.5		0.000152065
390		0.000272381
389.5		0.000184752
389		0.000203094
388.5		0.000219922
388		0.000239753
387.5		0.000214621
387		0.000164403
386.5		0.000193554
386		0.000199682
385.5		0.000169148
385		0.000208783
384.5		0.000223982
384		0.000104711
383.5		0.000175904
383		0.000193384
382.5		0.00027365
382		0.000181253
381.5		0.000241135
381		0.000273623
380.5		0.000211398
380		0.000196461
379.5		0.000296335
379		0.000248751
378.5		0.000206696
378		0.000262028
377.5		0.000142848
377		0.000343191
376.5		0.000298208
376		0.000145163
375.5		0.000185903
375		0.000191366
374.5		0.000324075
374		0.000147162
373.5		0.000232584
373		0.000223234
372.5		0.000243337
372		0.000212089
371.5		0.000275982
371		0.000287814
370.5		0.000290032
370		0.000305456
369.5		0.000239528
369		0.000194875
368.5		0.000258753
368		0.000264057
367.5		0.000187236
367		6.95E-05
366.5		0.000173521
366		0.000254175
365.5		-0.000135492
365		0.000409494
364.5		0.000162475
364		0.000197961
363.5		0.000213457
363		5.96E-05
362.5		0.000150711
362		0.000130762
361.5		0.000271415
361		0.000330611
360.5		6.33E-05
360		0.000278458
359.5		0.000151438
359		0.000343643
358.5		0.000167465
358		3.55E-05
357.5		0.000311675
357		0.000297357
356.5		0.000234474
356		0.000266561
355.5		0.000109116
355		0.000238399
354.5		0.000208105
354		0.000328273
353.5		0.00015725
353		0.00026457
352.5		0.000166336
352		0.00024273
351.5		0.000353055
351		0.000119813
350.5		0.000267642
350		9.82E-05
349.5		-0.00054255
349		0.00015298
348.5		0.000216648
348		0.000294534
347.5		0.00018767
347		0.000239906
346.5		0.000236813
346		0.000189528
345.5		0.000215757
345		0.000258267
344.5		0.000174888
344		0.000206057
343.5		0.000147468
343		0.000274341
342.5		0.000187119
342		0.000104556
341.5		0.0002314
341		0.00031909
340.5		0.00017978
340		0.000192853
339.5		0.000287408
339		0.000236085
338.5		0.000116642
338		0.000202337
337.5		0.000210145
337		0.00010472
336.5		0.000163907
336		0.000206214
335.5		0.000182105
335		0.000121415
334.5		0.000239797
334		0.00022836
333.5		0.000126794
333		0.000450451
332.5		0.000189525
332		0.00025907
331.5		0.00022364
331		0.000136581
330.5		0.000215566
330		0.0001547
329.5		0.0003632
329		0.000361884
328.5		0.0003438
328		0.000229512
327.5		0.000212694
327		0.000180532
326.5		0.000190421
326		0.000218098
325.5		0.000120312
325		0.000216014
324.5		0.000158626
324		0.000242473
323.5		0.000192354
323		0.000176058
322.5		0.000174828
322		0.000232711
321.5		0.000177374
321		0.000170649
320.5		0.000288032
320		0.000192472
319.5		0.00020896
319		0.000249479
318.5		0.00018942
318		0.000202769
317.5		0.000238538
317		0.000220756
316.5		0.000119673
316		0.000264619
315.5		0.000183024
315		0.000120073
314.5		9.35E-05
314		0.000173792
313.5		0.000178538
313		0.000231742
312.5		0.000158774
312		0.000225679
311.5		0.000174812
311		0.000305571
310.5		0.000332061
310		0.000154975
309.5		0.000322756
309		0.00015605
308.5		0.00019055
308		0.000253032
307.5		0.000224904
307		0.000147447
306.5		0.000361762
306		0.000197422
305.5		9.01E-05
305		0.000193245
304.5		0.00016272
304		8.93E-05
303.5		0.000362685
303		0.000139673
302.5		0.000224683
302		0.000271722
301.5		0.000175734
301		0.000237345
300.5		0.000322168
300		0.000196039
